Section 32 Existing
test
32E.FLD

 DIST    B Horz   B Vert   B PROD    B MAX   E Horz   E Vert   E PROD    E MAX
 (Ft)     (mG)     (mG)     (mG)      (mG)   (kV/m)   (kV/m)   (kV/m)   (V/m)
 ----    ------   ------   ------    -----   ------   ------   ------   ------
-300.00   52.378  121.824  132.606  132.526    0.058    0.611    0.614    0.614
-299.00   54.084  123.996  135.278  135.192    0.060    0.630    0.633    0.633
-298.00   55.867  126.226  138.036  137.945    0.063    0.651    0.654    0.654
-297.00   57.732  128.513  140.885  140.788    0.066    0.672    0.675    0.675
-296.00   59.684  130.861  143.828  143.725    0.069    0.694    0.698    0.698
-295.00   61.727  133.270  146.871  146.760    0.072    0.718    0.721    0.721
-294.00   63.868  135.742  150.016  149.899    0.075    0.742    0.746    0.746
-293.00   66.112  138.279  153.270  153.145    0.079    0.767    0.771    0.771
-292.00   68.465  140.882  156.637  156.503    0.083    0.794    0.798    0.798
-291.00   70.934  143.554  160.123  159.980    0.087    0.822    0.827    0.827
-290.00   73.527  146.296  163.733  163.581    0.091    0.851    0.856    0.856
-289.00   76.250  149.109  167.474  167.310    0.095    0.882    0.887    0.887
-288.00   79.113  151.994  171.351  171.176    0.100    0.914    0.920    0.920
-287.00   82.124  154.954  175.371  175.184    0.105    0.948    0.954    0.954
-286.00   85.293  157.989  179.543  179.342    0.110    0.984    0.990    0.990
-285.00   88.630  161.101  183.872  183.657    0.116    1.021    1.028    1.028
-284.00   92.147  164.290  188.368  188.137    0.122    1.060    1.067    1.067
-283.00   95.854  167.558  193.038  192.790    0.128    1.102    1.109    1.109
-282.00   99.766  170.903  197.892  197.626    0.135    1.145    1.153    1.153
-281.00  103.895  174.328  202.939  202.653    0.142    1.191    1.199    1.199
-280.00  108.257  177.830  208.190  207.883    0.150    1.239    1.248    1.248
-279.00  112.868  181.410  213.656  213.324    0.158    1.290    1.300    1.300
-278.00  117.745  185.065  219.347  218.990    0.167    1.344    1.354    1.354
-277.00  122.907  188.794  225.276  224.891    0.176    1.400    1.411    1.411
-276.00  128.374  192.594  231.457  231.041    0.186    1.460    1.471    1.471
-275.00  134.167  196.460  237.902  237.452    0.196    1.523    1.535    1.535
-274.00  140.310  200.387  244.626  244.140    0.207    1.589    1.602    1.602
-273.00  146.828  204.369  251.645  251.119    0.219    1.659    1.674    1.674
-272.00  153.748  208.397  258.974  258.404    0.231    1.733    1.749    1.749
-271.00  161.098  212.462  266.632  266.014    0.244    1.812    1.828    1.828
-270.00  168.910  216.551  274.636  273.965    0.258    1.895    1.912    1.912
-269.00  177.218  220.649  283.005  282.277    0.273    1.982    2.001    2.001
-268.00  186.056  224.738  291.760  290.968    0.289    2.075    2.095    2.095
-267.00  195.462  228.798  300.922  300.060    0.306    2.173    2.195    2.195
-266.00  205.477  232.803  310.513  309.573    0.323    2.277    2.300    2.300
-265.00  216.143  236.723  320.555  319.530    0.342    2.387    2.411    2.411
-264.00  227.504  240.523  331.073  329.954    0.361    2.503    2.529    2.529
-263.00  239.608  244.161  342.092  340.869    0.381    2.626    2.653    2.653
-262.00  252.502  247.590  353.636  352.298    0.403    2.755    2.785    2.785
-261.00  266.237  250.752  365.730  364.266    0.425    2.892    2.923    2.923
-260.00  280.862  253.583  378.402  376.796    0.448    3.037    3.070    3.070
-259.00  296.427  256.008  391.675  389.913    0.471    3.189    3.224    3.224
-258.00  312.980  257.941  405.574  403.639    0.495    3.350    3.387    3.387
-257.00  330.567  259.283  420.122  417.995    0.520    3.519    3.557    3.557
-256.00  349.228  259.924  435.340  432.999    0.544    3.697    3.736    3.736
-255.00  368.996  259.738  451.245  448.667    0.568    3.882    3.924    3.924
-254.00  389.892  258.589  467.850  465.009    0.592    4.077    4.120    4.120
-253.00  411.923  256.326  485.163  482.028    0.614    4.279    4.323    4.323
-252.00  435.078  252.787  503.184  499.723    0.634    4.490    4.534    4.534
-251.00  459.320  247.807  521.904  518.079    0.652    4.707    4.752    4.752
-250.00  484.584  241.220  541.303  537.074    0.666    4.931    4.976    4.976
-249.00  510.764  232.874  561.347  556.669    0.677    5.160    5.204    5.204
-248.00  537.713  222.650  581.986  576.810    0.681    5.392    5.435    5.435
-247.00  565.231  210.498  603.154  597.424    0.680    5.626    5.667    5.667
-246.00  593.061  196.488  624.763  618.419    0.671    5.859    5.898    5.898
-245.00  620.883  180.910  646.702  639.679    0.653    6.089    6.124    6.124
-244.00  648.311  164.434  668.839  661.064    0.626    6.313    6.344    6.344
-243.00  674.896  148.390  691.017  682.414    0.589    6.526    6.553    6.552
-242.00  700.131  135.163  713.058  703.544    0.540    6.725    6.747    6.746
-241.00  723.459  128.397  734.765  724.250    0.482    6.906    6.923    6.922
-240.00  744.299  132.067  755.925  744.316    0.413    7.064    7.076    7.075
-239.00  762.063  148.094  776.320  763.516    0.339    7.194    7.202    7.201
-238.00  776.191  175.251  795.729  781.625    0.264    7.294    7.299    7.298
-237.00  786.181  210.777  813.945  798.430    0.207    7.359    7.362    7.360
-236.00  791.625  252.041  830.780  813.739    0.199    7.387    7.389    7.387
-235.00  792.240  296.981  846.075  827.387    0.253    7.375    7.379    7.375
-234.00  787.890  343.998  859.712  839.251    0.344    7.322    7.330    7.325
-233.00  778.597  391.796  871.618  849.252    0.449    7.230    7.244    7.237
-232.00  764.551  439.293  881.769  857.360    0.558    7.099    7.121    7.112
-231.00  746.092  485.576  890.190  863.590    0.664    6.932    6.964    6.952
-230.00  723.699  529.892  896.953  868.006    0.765    6.733    6.776    6.761
-229.00  697.957  571.636  902.171  870.709    0.857    6.506    6.563    6.543
-228.00  669.540  610.353  905.988  871.830    0.940    6.257    6.327    6.302
-227.00  639.175  645.727  908.575  871.524    1.013    5.991    6.076    6.043
-226.00  607.631  677.570  910.118  869.959    1.076    5.715    5.816    5.773
-225.00  575.695  705.798  910.810  867.308    1.128    5.436    5.551    5.497
-224.00  544.175  730.418  910.844  863.740    1.171    5.159    5.290    5.221
-223.00  513.891  751.500  910.404  859.416    1.206    4.893    5.039    4.953
-222.00  485.681  769.162  909.668  854.483    1.233    4.645    4.806    4.699
-221.00  460.397  783.543  908.793  849.069    1.253    4.423    4.597    4.467
-220.00  438.886  794.797  907.922  843.286    1.266    4.234    4.419    4.265
-219.00  421.957  803.073  907.179  837.223    1.275    4.085    4.280    4.104
-218.00  410.308  808.512  906.667  830.946    1.279    3.984    4.184    3.991
-217.00  404.448  811.236  906.467  824.501    1.279    3.933    4.136    3.934
-216.00  404.607  811.353  906.643  817.916    1.274    3.936    4.136    3.936
-215.00  410.691  808.954  907.234  811.194    1.264    3.990    4.185    3.997
-214.00  422.290  804.121  908.261  804.322    1.250    4.092    4.279    4.110
-213.00  438.737  796.936  909.724  797.271    1.230    4.237    4.412    4.265
-212.00  459.199  787.497  911.600  789.994    1.204    4.416    4.577    4.453
-211.00  482.753  775.930  913.848  782.435    1.171    4.621    4.768    4.665
-210.00  508.453  762.414  916.406  774.528    1.131    4.845    4.975    4.891
-209.00  535.353  747.203  919.193  766.206    1.082    5.077    5.191    5.122
-208.00  562.534  730.649  922.113  757.406    1.025    5.311    5.409    5.353
-207.00  589.102  713.224  925.057  748.083    0.959    5.538    5.621    5.575
-206.00  614.199  695.531  927.903  738.227    0.886    5.752    5.820    5.782
-205.00  637.010  678.308  930.528  727.900    0.807    5.946    6.000    5.968
-204.00  656.782  662.399  932.811  717.313    0.725    6.113    6.156    6.128
-203.00  672.845  648.709  934.636  706.990    0.646    6.249    6.282    6.257
-202.00  684.638  638.112  935.904  698.177    0.578    6.348    6.374    6.352
-201.00  691.735  631.353  936.538  693.400    0.530    6.408    6.430    6.409
-200.00  693.865  628.935  936.487  695.179    0.513    6.427    6.447    6.427
-199.00  690.931  631.033  935.729  702.432    0.530    6.403    6.425    6.404
-198.00  683.012  637.466  934.275  712.162    0.578    6.338    6.364    6.342
-197.00  670.359  647.727  932.165  722.484    0.647    6.233    6.266    6.243
-196.00  653.378  661.064  929.467  732.555    0.725    6.092    6.135    6.108
-195.00  632.609  676.598  926.271  742.016    0.807    5.918    5.973    5.942
-194.00  608.699  693.422  922.685  750.730    0.886    5.718    5.786    5.750
-193.00  582.378  710.686  918.825  758.670    0.959    5.497    5.580    5.536
-192.00  554.433  727.654  914.809  765.870    1.025    5.261    5.360    5.306
-191.00  525.700  743.718  910.756  772.397    1.082    5.018    5.133    5.067
-190.00  497.049  758.407  906.774  778.334    1.130    4.775    4.907    4.826
-189.00  469.389  771.369  902.960  783.773    1.171    4.540    4.688    4.589
-188.00  443.665  782.351  899.395  788.802    1.204    4.322    4.486    4.365
-187.00  420.853  791.176  896.145  793.506    1.229    4.129    4.308    4.163
-186.00  401.937  797.718  893.257  797.956    1.249    3.970    4.162    3.993
-185.00  387.854  801.883  890.757  802.210    1.263    3.854    4.056    3.864
-184.00  379.398  803.593  888.653  806.312    1.273    3.786    3.994    3.788
-183.00  377.116  802.766  886.933  810.286    1.277    3.771    3.982    3.772
-182.00  381.209  799.318  885.567  814.139    1.278    3.812    4.020    3.818
-181.00  391.494  793.145  884.503  817.856    1.273    3.905    4.108    3.923
-180.00  407.452  784.129  883.672  821.403    1.265    4.048    4.241    4.079
-179.00  428.326  772.138  882.983  824.727    1.250    4.233    4.413    4.277
-178.00  453.228  757.028  882.330  827.753    1.230    4.452    4.619    4.507
-177.00  481.232  738.657  881.588  830.389    1.203    4.698    4.850    4.760
-176.00  511.417  716.894  880.616  832.522    1.168    4.963    5.098    5.027
-175.00  542.894  691.638  879.260  834.024    1.124    5.238    5.358    5.301
-174.00  574.803  662.837  877.354  834.758    1.071    5.517    5.620    5.576
-173.00  606.312  630.506  874.730  834.574    1.008    5.791    5.879    5.844
-172.00  636.615  594.761  871.217  833.325    0.935    6.055    6.127    6.100
-171.00  664.936  555.830  866.652  830.864    0.852    6.302    6.360    6.339
-170.00  690.537  514.087  860.888  827.061    0.759    6.526    6.570    6.554
-169.00  712.746  470.068  853.797  821.802    0.659    6.722    6.754    6.742
-168.00  730.971  424.488  845.287  815.006    0.554    6.884    6.907    6.897
-167.00  744.737  378.272  835.298  806.625    0.448    7.010    7.025    7.017
-166.00  753.700  332.577  823.815  796.650    0.348    7.097    7.106    7.100
-165.00  757.674  288.853  810.867  785.119    0.267    7.143    7.148    7.144
-164.00  756.636  248.919  796.529  772.110    0.227    7.148    7.152    7.148
-163.00  750.722  215.041  780.914  757.741    0.247    7.113    7.117    7.114
-162.00  740.217  189.829  764.170  742.166    0.306    7.039    7.046    7.043
-161.00  725.529  175.590  746.475  725.562    0.381    6.930    6.941    6.939
-160.00  707.160  173.028  728.020  708.127    0.455    6.789    6.805    6.803
-159.00  685.670  180.418  709.010  690.064    0.524    6.621    6.642    6.641
-158.00  661.648  194.501  689.643  671.578    0.583    6.429    6.456    6.455
-157.00  635.675  212.068  670.116  652.865    0.632    6.219    6.251    6.250
-156.00  608.307  230.764  650.607  634.107    0.670    5.994    6.031    6.030
-155.00  580.051  249.103  631.278  615.469    0.698    5.758    5.800    5.799
-154.00  551.357  266.233  612.270  597.096    0.717    5.515    5.561    5.560
-153.00  522.610  281.714  593.704  579.110    0.727    5.268    5.318    5.317
-152.00  494.130  295.364  575.678  561.613    0.730    5.020    5.073    5.072
-151.00  466.175  307.160  558.271  544.687    0.726    4.774    4.829    4.828
-150.00  438.942  317.173  541.543  528.396    0.717    4.531    4.588    4.586
-149.00  412.581  325.526  525.539  512.787    0.704    4.293    4.350    4.349
-148.00  387.197  332.373  510.288  497.893    0.688    4.061    4.119    4.117
-147.00  362.856  337.878  495.809  483.735    0.670    3.836    3.894    3.892
-146.00  339.597  342.205  482.110  470.325    0.649    3.618    3.676    3.674
-145.00  317.432  345.512  469.193  457.665    0.628    3.408    3.466    3.463
-144.00  296.358  347.947  457.050  445.753    0.606    3.207    3.264    3.261
-143.00  276.355  349.646  445.673  434.580    0.584    3.014    3.071    3.067
-142.00  257.398  350.732  435.048  424.136    0.562    2.830    2.886    2.882
-141.00  239.451  351.315  425.158  414.406    0.541    2.655    2.709    2.705
-140.00  222.480  351.493  415.986  405.375    0.520    2.488    2.542    2.536
-139.00  206.448  351.350  407.514  397.026    0.501    2.329    2.382    2.376
-138.00  191.321  350.962  399.723  389.343    0.482    2.179    2.232    2.223
-137.00  177.072  350.394  392.594  382.308    0.465    2.037    2.090    2.080
-136.00  163.678  349.701  386.110  375.905    0.449    1.904    1.956    1.944
-135.00  151.128  348.933  380.255  370.119    0.434    1.779    1.831    1.817
-134.00  139.425  348.130  375.011  364.935    0.421    1.663    1.715    1.698
-133.00  128.586  347.327  370.366  360.340    0.409    1.556    1.609    1.587
-132.00  118.652  346.555  366.304  356.320    0.398    1.459    1.512    1.486
-131.00  109.686  345.837  362.815  352.866    0.389    1.372    1.426    1.395
-130.00  101.782  345.195  359.888  349.968    0.381    1.297    1.352    1.315
-129.00   95.061  344.644  357.514  347.618    0.375    1.234    1.289    1.247
-128.00   89.667  344.199  355.687  345.808    0.370    1.184    1.240    1.192
-127.00   85.757  343.868  354.400  344.534    0.366    1.148    1.205    1.152
-126.00   83.469  343.658  353.649  343.793    0.364    1.128    1.185    1.129
-125.00   82.898  343.574  353.433  343.581    0.363    1.124    1.181    1.124
-124.00   84.065  343.617  353.751  343.898    0.364    1.135    1.192    1.136
-123.00   86.916  343.786  354.603  344.745    0.366    1.161    1.218    1.167
-122.00   91.332  344.076  355.991  346.125    0.369    1.203    1.258    1.213
-121.00   97.161  344.481  357.921  348.040    0.374    1.258    1.312    1.273
-120.00  104.246  344.991  360.397  350.497    0.381    1.326    1.379    1.345
-119.00  112.450  345.593  363.428  353.502    0.388    1.405    1.458    1.429
-118.00  121.659  346.271  367.021  357.063    0.397    1.495    1.547    1.523
-117.00  131.791  347.004  371.188  361.190    0.408    1.595    1.646    1.627
-116.00  142.790  347.767  375.940  365.894    0.420    1.704    1.755    1.739
-115.00  154.625  348.532  381.292  371.187    0.433    1.822    1.873    1.859
-114.00  167.282  349.262  387.256  377.083    0.448    1.948    1.999    1.988
-113.00  180.765  349.918  393.851  383.597    0.464    2.083    2.134    2.125
-112.00  195.089  350.450  401.092  390.745    0.481    2.225    2.277    2.269
-111.00  210.278  350.802  408.998  398.542    0.500    2.376    2.428    2.422
-110.00  226.363  350.911  417.587  407.006    0.519    2.535    2.588    2.583
-109.00  243.380  350.701  426.878  416.155    0.540    2.703    2.756    2.752
-108.00  261.366  350.086  436.890  426.004    0.561    2.879    2.933    2.929
-107.00  280.359  348.971  447.640  436.569    0.582    3.063    3.118    3.115
-106.00  300.392  347.244  459.145  447.865    0.604    3.256    3.311    3.309
-105.00  321.494  344.785  471.418  459.903    0.626    3.457    3.513    3.511
-104.00  343.683  341.457  484.470  472.691    0.648    3.666    3.723    3.721
-103.00  366.965  337.114  498.306  486.232    0.668    3.883    3.940    3.939
-102.00  391.326  331.597  512.926  500.522    0.686    4.108    4.165    4.164
-101.00  416.730  324.745  528.321  515.551    0.702    4.340    4.397    4.396
-100.00  443.109  316.395  544.473  531.298    0.715    4.578    4.634    4.633
 -99.00  470.359  306.396  561.352  547.728    0.724    4.821    4.875    4.874
 -98.00  498.332  294.627  578.913  564.794    0.728    5.066    5.118    5.118
 -97.00  526.829  281.023  597.096  582.433    0.725    5.314    5.363    5.362
 -96.00  555.593  265.614  615.821  600.562    0.715    5.560    5.605    5.605
 -95.00  584.305  248.592  634.988  619.078    0.696    5.802    5.844    5.843
 -94.00  612.579  230.411  654.478  637.857    0.668    6.037    6.074    6.073
 -93.00  639.966  211.941  674.148  656.753    0.630    6.262    6.294    6.293
 -92.00  665.959  194.691  693.834  675.602    0.581    6.472    6.498    6.497
 -91.00  690.003  181.033  713.356  694.219    0.522    6.663    6.684    6.682
 -90.00  711.516  174.153  732.519  712.406    0.454    6.831    6.846    6.845
 -89.00  729.911  177.232  751.120  729.959    0.379    6.971    6.982    6.980
 -88.00  744.627  191.892  768.955  746.670    0.305    7.080    7.087    7.084
 -87.00  755.162  217.387  785.829  762.343    0.246    7.153    7.157    7.155
 -86.00  761.111  251.432  801.566  776.797    0.227    7.188    7.192    7.188
 -85.00  762.187  291.461  816.014  789.878    0.267    7.183    7.188    7.184
 -84.00  758.255  335.244  829.059  801.467    0.348    7.137    7.146    7.140
 -83.00  749.340  380.979  840.628  811.485    0.448    7.051    7.065    7.057
 -82.00  735.628  427.229  850.689  819.895    0.554    6.925    6.947    6.937
 -81.00  717.462  472.838  859.260  826.705    0.659    6.762    6.794    6.782
 -80.00  695.320  516.888  866.397  831.962    0.759    6.567    6.611    6.595
 -79.00  669.793  558.662  872.196  835.750    0.852    6.344    6.401    6.380
 -78.00  641.555  597.626  876.784  838.182    0.935    6.097    6.169    6.142
 -77.00  611.342  633.407  880.309  839.390    1.008    5.834    5.920    5.886
 -76.00  579.931  665.774  882.935  839.519    1.071    5.560    5.662    5.618
 -75.00  548.126  694.614  884.834  838.720    1.124    5.282    5.400    5.344
 -74.00  516.757  719.909  886.175  837.142    1.168    5.007    5.142    5.071
 -73.00  486.676  741.713  887.126  834.924    1.203    4.743    4.893    4.804
 -72.00  458.766  760.127  887.840  832.194    1.230    4.497    4.663    4.552
 -71.00  433.934  775.280  888.458  829.064    1.250    4.278    4.457    4.322
 -70.00  413.092  787.317  889.108  825.628    1.264    4.093    4.284    4.124
 -69.00  397.108  796.379  889.896  821.961    1.273    3.950    4.150    3.967
 -68.00  386.727  802.599  890.911  818.117    1.278    3.855    4.061    3.861
 -67.00  382.460  806.095  892.224  814.129    1.277    3.813    4.021    3.813
 -66.00  384.492  806.969  893.886  810.011    1.273    3.825    4.031    3.826
 -65.00  392.639  805.308  895.928  805.757    1.263    3.890    4.090    3.899
 -64.00  406.379  801.191  898.360  801.341    1.249    4.003    4.193    4.024
 -63.00  424.940  794.698  901.176  796.721    1.230    4.159    4.337    4.191
 -62.00  447.405  785.921  904.347  791.838    1.204    4.348    4.512    4.390
 -61.00  472.806  774.985  907.825  786.619    1.171    4.563    4.711    4.611
 -60.00  500.171  762.066  911.546  780.980    1.131    4.795    4.927    4.845
 -59.00  528.559  747.416  915.427  774.833    1.082    5.036    5.151    5.085
 -58.00  557.061  731.385  919.369  768.086    1.025    5.277    5.375    5.322
 -57.00  584.801  714.440  923.265  760.656    0.959    5.511    5.594    5.550
 -56.00  610.943  697.186  926.995  752.477    0.886    5.731    5.799    5.762
 -55.00  634.693  680.355  930.440  743.519    0.807    5.929    5.984    5.953
