Section 32 Proposed
test
32P.FLD

 DIST    B Horz   B Vert   B PROD    B MAX   E Horz   E Vert   E PROD    E MAX
 (Ft)     (mG)     (mG)     (mG)      (mG)   (kV/m)   (kV/m)   (kV/m)   (V/m)
 ----    ------   ------   ------    -----   ------   ------   ------   ------
-300.00   53.181  121.942  133.034  132.959    0.058    0.612    0.615    0.615
-299.00   54.889  124.115  135.711  135.631    0.060    0.631    0.634    0.634
-298.00   56.674  126.345  138.474  138.389    0.063    0.652    0.655    0.655
-297.00   58.542  128.633  141.328  141.237    0.066    0.673    0.676    0.676
-296.00   60.496  130.980  144.276  144.179    0.069    0.695    0.699    0.699
-295.00   62.542  133.390  147.324  147.220    0.072    0.719    0.722    0.722
-294.00   64.685  135.862  150.475  150.364    0.075    0.743    0.747    0.747
-293.00   66.932  138.399  153.734  153.616    0.079    0.768    0.773    0.773
-292.00   69.287  141.003  157.107  156.981    0.083    0.795    0.799    0.799
-291.00   71.759  143.675  160.599  160.463    0.087    0.823    0.828    0.828
-290.00   74.354  146.417  164.215  164.070    0.091    0.852    0.857    0.857
-289.00   77.080  149.230  167.961  167.806    0.095    0.883    0.888    0.888
-288.00   79.946  152.116  171.845  171.678    0.100    0.915    0.921    0.921
-287.00   82.959  155.076  175.872  175.693    0.105    0.949    0.955    0.955
-286.00   86.131  158.112  180.049  179.858    0.110    0.985    0.991    0.991
-285.00   89.470  161.224  184.386  184.180    0.116    1.022    1.029    1.029
-284.00   92.989  164.413  188.888  188.667    0.122    1.061    1.068    1.068
-283.00   96.699  167.681  193.566  193.328    0.128    1.103    1.110    1.110
-282.00  100.613  171.027  198.427  198.171    0.135    1.146    1.154    1.154
-281.00  104.745  174.452  203.482  203.207    0.142    1.192    1.201    1.200
-280.00  109.109  177.954  208.741  208.444    0.150    1.240    1.249    1.249
-279.00  113.723  181.534  214.214  213.894    0.158    1.291    1.301    1.301
-278.00  118.602  185.190  219.913  219.568    0.167    1.345    1.355    1.355
-277.00  123.767  188.919  225.851  225.478    0.176    1.401    1.412    1.412
-276.00  129.236  192.719  232.040  231.637    0.186    1.461    1.472    1.472
-275.00  135.031  196.585  238.494  238.058    0.196    1.524    1.536    1.536
-274.00  141.177  200.513  245.227  244.755    0.207    1.590    1.603    1.603
-273.00  147.697  204.495  252.255  251.743    0.219    1.660    1.675    1.675
-272.00  154.620  208.524  259.594  259.039    0.231    1.734    1.750    1.750
-271.00  161.973  212.589  267.262  266.659    0.244    1.813    1.829    1.829
-270.00  169.787  216.678  275.276  274.621    0.258    1.896    1.913    1.913
-269.00  178.097  220.776  283.656  282.943    0.273    1.983    2.002    2.002
-268.00  186.938  224.866  292.422  291.646    0.289    2.076    2.096    2.096
-267.00  196.346  228.926  301.594  300.749    0.306    2.174    2.196    2.196
-266.00  206.364  232.932  311.196  310.274    0.323    2.278    2.301    2.301
-265.00  217.032  236.852  321.250  320.244    0.342    2.388    2.412    2.412
-264.00  228.396  240.652  331.780  330.680    0.361    2.504    2.530    2.530
-263.00  240.502  244.291  342.811  341.607    0.381    2.627    2.654    2.654
-262.00  253.399  247.719  354.367  353.049    0.403    2.756    2.786    2.786
-261.00  267.136  250.882  366.475  365.030    0.425    2.893    2.924    2.924
-260.00  281.764  253.714  379.159  377.574    0.448    3.038    3.071    3.071
-259.00  297.331  256.139  392.445  390.705    0.471    3.190    3.225    3.225
-258.00  313.887  258.072  406.358  404.445    0.495    3.351    3.388    3.387
-257.00  331.477  259.415  420.919  418.815    0.520    3.520    3.558    3.558
-256.00  350.141  260.056  436.151  433.833    0.544    3.698    3.737    3.737
-255.00  369.911  259.871  452.070  449.515    0.568    3.883    3.925    3.925
-254.00  390.810  258.722  468.689  465.871    0.592    4.078    4.120    4.120
-253.00  412.844  256.459  486.016  482.904    0.614    4.280    4.324    4.324
-252.00  436.002  252.921  504.050  500.612    0.634    4.490    4.535    4.535
-251.00  460.247  247.942  522.784  518.983    0.652    4.708    4.753    4.753
-250.00  485.514  241.355  542.196  537.990    0.666    4.932    4.976    4.976
-249.00  511.698  233.009  562.252  557.598    0.676    5.160    5.205    5.205
-248.00  538.650  222.785  582.904  577.750    0.681    5.393    5.436    5.436
-247.00  566.171  210.633  604.083  598.374    0.680    5.627    5.668    5.668
-246.00  594.005  196.623  625.701  619.378    0.671    5.860    5.898    5.898
-245.00  621.830  181.043  647.649  640.645    0.653    6.090    6.125    6.125
-244.00  649.263  164.562  669.793  662.036    0.626    6.314    6.345    6.344
-243.00  675.852  148.510  691.977  683.390    0.589    6.527    6.553    6.553
-242.00  701.091  135.267  714.021  704.520    0.540    6.726    6.748    6.747
-241.00  724.425  128.475  735.729  725.225    0.482    6.906    6.923    6.923
-240.00  745.270  132.107  756.888  745.286    0.413    7.064    7.076    7.076
-239.00  763.040  148.096  777.279  764.477    0.339    7.195    7.203    7.202
-238.00  777.174  175.221  796.682  782.575    0.264    7.295    7.300    7.298
-237.00  787.170  210.725  814.888  799.365    0.207    7.360    7.363    7.361
-236.00  792.622  251.973  831.709  814.654    0.199    7.387    7.390    7.387
-235.00  793.245  296.902  846.988  828.279    0.253    7.375    7.380    7.376
-234.00  788.903  343.911  860.606  840.116    0.344    7.323    7.331    7.326
-233.00  779.620  391.704  872.490  850.087    0.449    7.231    7.245    7.238
-232.00  765.584  439.196  882.617  858.161    0.558    7.100    7.122    7.113
-231.00  747.136  485.477  891.011  864.354    0.664    6.933    6.965    6.953
-230.00  724.755  529.790  897.745  868.730    0.765    6.734    6.777    6.762
-229.00  699.026  571.531  902.932  871.390    0.857    6.507    6.563    6.543
-228.00  670.623  610.247  906.717  872.466    0.940    6.258    6.328    6.302
-227.00  640.273  645.620  909.271  872.113    1.013    5.992    6.077    6.044
-226.00  608.743  677.461  910.781  870.500    1.076    5.716    5.816    5.774
-225.00  576.822  705.688  911.438  867.799    1.128    5.436    5.552    5.498
-224.00  545.316  730.307  911.437  864.180    1.171    5.160    5.291    5.222
-223.00  515.043  751.389  910.964  859.804    1.206    4.894    5.040    4.954
-222.00  486.842  769.049  910.193  854.818    1.233    4.646    4.806    4.699
-221.00  461.559  783.429  909.285  849.351    1.253    4.423    4.597    4.467
-220.00  440.042  794.683  908.381  843.515    1.266    4.234    4.420    4.266
-219.00  423.093  802.958  907.606  837.397    1.275    4.086    4.280    4.104
-218.00  411.411  808.396  907.063  831.066    1.279    3.984    4.184    3.991
-217.00  405.502  811.119  906.833  824.567    1.279    3.934    4.136    3.934
-216.00  405.597  811.235  906.979  817.927    1.274    3.936    4.137    3.937
-215.00  411.607  808.834  907.542  811.151    1.264    3.990    4.186    3.997
-214.00  423.124  804.000  908.543  804.225    1.250    4.093    4.279    4.110
-213.00  439.489  796.814  909.979  797.119    1.230    4.237    4.412    4.265
-212.00  459.869  787.372  911.830  789.789    1.204    4.416    4.577    4.454
-211.00  483.346  775.803  914.054  782.177    1.171    4.622    4.768    4.665
-210.00  508.975  762.285  916.588  774.219    1.131    4.845    4.975    4.891
-209.00  535.811  747.072  919.353  765.848    1.082    5.077    5.191    5.123
-208.00  562.935  730.515  922.252  757.001    1.025    5.311    5.409    5.353
-207.00  589.453  713.087  925.174  747.635    0.959    5.538    5.621    5.575
-206.00  614.504  695.391  928.000  737.743    0.886    5.752    5.820    5.782
-205.00  637.274  678.165  930.605  727.392    0.807    5.946    6.000    5.968
-204.00  657.009  662.254  932.867  716.800    0.725    6.113    6.156    6.128
-203.00  673.038  648.561  934.672  706.517    0.646    6.249    6.282    6.257
-202.00  684.800  637.962  935.920  697.836    0.578    6.348    6.374    6.352
-201.00  691.866  631.203  936.534  693.340    0.530    6.408    6.430    6.409
-200.00  693.966  628.785  936.461  695.444    0.513    6.427    6.447    6.427
-199.00  691.003  630.885  935.681  702.886    0.530    6.403    6.425    6.404
-198.00  683.053  637.320  934.205  712.681    0.578    6.338    6.364    6.342
-197.00  670.367  647.584  932.071  723.010    0.647    6.233    6.266    6.243
-196.00  653.351  660.925  929.349  733.059    0.725    6.092    6.135    6.108
-195.00  632.542  676.463  926.128  742.482    0.807    5.918    5.973    5.942
-194.00  608.589  693.291  922.514  751.150    0.886    5.718    5.786    5.750
-193.00  582.218  710.560  918.625  759.038    0.959    5.496    5.579    5.536
-192.00  554.216  727.531  914.580  766.182    1.025    5.260    5.359    5.306
-191.00  525.417  743.599  910.495  772.649    1.082    5.017    5.132    5.067
-190.00  496.690  758.291  906.480  778.525    1.130    4.774    4.906    4.826
-189.00  468.943  771.256  902.631  783.899    1.171    4.539    4.688    4.589
-188.00  443.121  782.240  899.030  788.863    1.204    4.321    4.486    4.365
-187.00  420.200  791.067  895.743  793.500    1.229    4.129    4.308    4.163
-186.00  401.167  797.611  892.814  797.882    1.249    3.970    4.162    3.992
-185.00  386.960  801.777  890.273  802.068    1.263    3.853    4.055    3.864
-184.00  378.384  803.488  888.126  806.100    1.273    3.785    3.993    3.787
-183.00  375.991  802.663  886.362  810.004    1.277    3.771    3.981    3.771
-182.00  379.988  799.216  884.950  813.785    1.278    3.811    4.019    3.817
-181.00  390.196  793.044  883.839  817.431    1.273    3.904    4.107    3.922
-180.00  406.097  784.029  882.958  820.907    1.265    4.047    4.240    4.078
-179.00  426.931  772.038  882.220  824.159    1.250    4.232    4.413    4.277
-178.00  451.807  756.929  881.517  827.114    1.230    4.451    4.618    4.506
-177.00  479.796  738.559  880.724  829.678    1.203    4.697    4.849    4.759
-176.00  509.974  716.798  879.700  831.740    1.168    4.962    5.098    5.026
-175.00  541.447  691.543  878.292  833.173    1.124    5.237    5.357    5.300
-174.00  573.355  662.743  876.336  833.838    1.071    5.516    5.619    5.575
-173.00  604.865  630.415  873.662  833.588    1.008    5.791    5.878    5.843
-172.00  635.170  594.671  870.101  832.273    0.935    6.055    6.126    6.100
-171.00  663.492  555.744  865.490  829.751    0.852    6.301    6.359    6.338
-170.00  689.094  514.005  859.681  825.889    0.759    6.525    6.569    6.553
-169.00  711.303  469.990  852.550  820.576    0.659    6.721    6.753    6.741
-168.00  729.528  424.417  844.003  813.730    0.554    6.884    6.906    6.896
-167.00  743.292  378.208  833.981  805.304    0.448    7.010    7.024    7.016
-166.00  752.253  332.525  822.471  795.290    0.348    7.096    7.105    7.099
-165.00  756.225  288.815  809.501  783.726    0.267    7.142    7.147    7.143
-164.00  755.184  248.902  795.145  770.690    0.228    7.147    7.151    7.147
-163.00  749.267  215.051  779.517  756.300    0.247    7.112    7.116    7.113
-162.00  738.757  189.873  762.768  740.710    0.306    7.038    7.045    7.043
-161.00  724.065  175.671  745.071  724.099    0.381    6.929    6.940    6.938
-160.00  705.691  173.142  726.621  706.661    0.455    6.789    6.804    6.802
-159.00  684.196  180.556  707.620  688.602    0.524    6.620    6.641    6.640
-158.00  660.168  194.653  688.267  670.125    0.583    6.429    6.455    6.454
-157.00  634.190  212.228  668.758  651.426    0.632    6.218    6.250    6.249
-156.00  606.816  230.927  649.271  632.687    0.670    5.993    6.030    6.029
-155.00  578.555  249.268  629.968  614.072    0.698    5.757    5.799    5.798
-154.00  549.855  266.397  610.990  595.725    0.717    5.514    5.560    5.559
-153.00  521.102  281.878  592.455  577.770    0.727    5.267    5.317    5.316
-152.00  492.617  295.529  574.464  560.306    0.730    5.020    5.072    5.071
-151.00  464.656  307.324  557.094  543.417    0.726    4.773    4.828    4.827
-150.00  437.418  317.337  540.405  527.165    0.717    4.530    4.587    4.585
-149.00  411.053  325.690  524.441  511.597    0.704    4.292    4.349    4.348
-148.00  385.664  332.537  509.232  496.746    0.688    4.060    4.118    4.116
-147.00  361.320  338.041  494.797  482.632    0.670    3.834    3.893    3.891
-146.00  338.057  342.368  481.143  469.268    0.649    3.617    3.675    3.673
-145.00  315.890  345.675  468.271  456.656    0.628    3.407    3.465    3.462
-144.00  294.815  348.110  456.175  444.794    0.606    3.206    3.263    3.260
-143.00  274.812  349.809  444.846  433.672    0.584    3.013    3.069    3.066
-142.00  255.856  350.895  434.269  423.280    0.562    2.829    2.885    2.881
-141.00  237.914  351.479  424.429  413.603    0.541    2.654    2.708    2.704
-140.00  220.948  351.656  415.307  404.627    0.520    2.487    2.541    2.535
-139.00  204.926  351.514  406.886  396.334    0.501    2.328    2.381    2.374
-138.00  189.812  351.126  399.147  388.707    0.482    2.178    2.231    2.222
-137.00  175.581  350.558  392.071  381.730    0.465    2.036    2.089    2.079
-136.00  162.211  349.865  385.640  375.386    0.449    1.903    1.955    1.943
-135.00  149.693  349.097  379.838  369.660    0.434    1.778    1.830    1.816
-134.00  138.032  348.294  374.649  364.537    0.421    1.662    1.715    1.697
-133.00  127.248  347.492  370.058  360.003    0.409    1.555    1.608    1.587
-132.00  117.384  346.720  366.052  356.047    0.398    1.458    1.512    1.486
-131.00  108.509  346.003  362.618  352.656    0.389    1.372    1.426    1.395
-130.00  100.720  345.361  359.748  349.822    0.381    1.297    1.351    1.315
-129.00   94.143  344.810  357.431  347.537    0.375    1.234    1.289    1.246
-128.00   88.926  344.365  355.661  345.793    0.370    1.184    1.240    1.192
-127.00   85.223  344.034  354.433  344.585    0.366    1.148    1.205    1.152
-126.00   83.168  343.825  353.741  343.910    0.364    1.128    1.186    1.129
-125.00   82.845  343.741  353.583  343.766    0.363    1.124    1.181    1.124
-124.00   84.261  343.785  353.960  344.151    0.364    1.135    1.192    1.137
-123.00   87.348  343.953  354.871  345.066    0.366    1.162    1.218    1.167
-122.00   91.978  344.244  356.320  346.513    0.369    1.204    1.259    1.213
-121.00   97.993  344.649  358.310  348.497    0.374    1.259    1.313    1.274
-120.00  105.238  345.160  360.846  351.021    0.381    1.327    1.380    1.347
-119.00  113.574  345.762  363.938  354.094    0.388    1.406    1.459    1.431
-118.00  122.894  346.440  367.592  357.723    0.397    1.496    1.548    1.525
-117.00  133.119  347.173  371.820  361.918    0.408    1.596    1.648    1.628
-116.00  144.196  347.937  376.633  366.690    0.420    1.705    1.756    1.740
-115.00  156.096  348.701  382.045  372.050    0.433    1.823    1.874    1.861
-114.00  168.809  349.432  388.071  378.013    0.448    1.950    2.000    1.989
-113.00  182.341  350.087  394.727  384.594    0.464    2.084    2.135    2.126
-112.00  196.707  350.620  402.029  391.807    0.481    2.227    2.278    2.271
-111.00  211.933  350.972  409.997  399.671    0.500    2.378    2.430    2.424
-110.00  228.052  351.081  418.647  408.200    0.519    2.537    2.590    2.584
-109.00  245.098  350.871  427.999  417.413    0.540    2.704    2.758    2.753
-108.00  263.112  350.256  438.072  427.325    0.561    2.880    2.934    2.931
-107.00  282.129  349.141  448.883  437.954    0.582    3.064    3.119    3.116
-106.00  302.185  347.414  460.448  449.312    0.604    3.257    3.313    3.310
-105.00  323.308  344.954  472.781  461.411    0.626    3.458    3.514    3.512
-104.00  345.517  341.626  485.892  474.258    0.648    3.668    3.724    3.723
-103.00  368.818  337.282  499.786  487.858    0.668    3.885    3.942    3.940
-102.00  393.198  331.765  514.463  502.205    0.686    4.110    4.167    4.165
-101.00  418.619  324.912  529.915  517.289    0.702    4.342    4.398    4.397
-100.00  445.015  316.561  546.122  533.089    0.715    4.579    4.635    4.634
 -99.00  472.281  306.560  563.053  549.569    0.724    4.822    4.876    4.875
 -98.00  500.271  294.790  580.665  566.683    0.728    5.068    5.120    5.119
 -97.00  528.784  281.183  598.896  584.365    0.725    5.315    5.364    5.363
 -96.00  557.564  265.770  617.666  602.534    0.715    5.561    5.607    5.606
 -95.00  586.291  248.742  636.875  621.085    0.696    5.803    5.845    5.844
 -94.00  614.581  230.552  656.402  639.893    0.668    6.039    6.076    6.075
 -93.00  641.985  212.069  676.105  658.814    0.630    6.263    6.295    6.294
 -92.00  667.995  194.800  695.819  677.681    0.581    6.474    6.500    6.498
 -91.00  692.056  181.113  715.363  696.308    0.522    6.665    6.685    6.684
 -90.00  713.587  174.195  734.541  714.497    0.454    6.833    6.848    6.846
 -89.00  732.001  177.230  753.150  732.044    0.379    6.973    6.983    6.981
 -88.00  746.736  191.846  770.986  748.740    0.305    7.081    7.088    7.086
 -87.00  757.293  217.306  787.854  764.387    0.246    7.155    7.159    7.156
 -86.00  763.263  251.325  803.576  778.807    0.227    7.190    7.193    7.190
 -85.00  764.363  291.337  818.002  791.844    0.267    7.185    7.190    7.185
 -84.00  760.456  335.108  831.018  803.380    0.348    7.139    7.147    7.141
 -83.00  751.568  380.835  842.549  813.335    0.448    7.052    7.066    7.059
 -82.00  737.885  427.078  852.567  821.674    0.554    6.926    6.948    6.939
 -81.00  719.751  472.683  861.087  828.405    0.659    6.764    6.796    6.783
 -80.00  697.643  516.730  868.168  833.575    0.759    6.568    6.612    6.596
 -79.00  672.152  558.501  873.906  837.270    0.852    6.345    6.402    6.381
 -78.00  643.954  597.463  878.429  839.603    0.935    6.099    6.170    6.143
 -77.00  613.782  633.242  881.887  840.706    1.008    5.835    5.922    5.887
 -76.00  582.414  665.607  884.443  840.727    1.071    5.561    5.663    5.620
 -75.00  550.653  694.446  886.270  839.817    1.124    5.283    5.402    5.346
 -74.00  519.326  719.741  887.539  838.124    1.168    5.009    5.143    5.072
 -73.00  489.283  741.544  888.417  835.790    1.203    4.745    4.895    4.805
 -72.00  461.402  759.956  889.059  832.941    1.230    4.499    4.664    4.553
 -71.00  436.584  775.109  889.606  829.692    1.250    4.279    4.458    4.324
 -70.00  415.733  787.145  890.186  826.136    1.264    4.094    4.285    4.125
 -69.00  399.710  796.206  890.905  822.348    1.273    3.951    4.151    3.968
 -68.00  389.253  802.425  891.854  818.383    1.278    3.856    4.062    3.862
 -67.00  384.871  805.920  893.103  814.273    1.277    3.814    4.022    3.814
 -66.00  386.752  806.794  894.703  810.034    1.273    3.826    4.032    3.827
 -65.00  394.722  805.132  896.685  805.659    1.263    3.890    4.090    3.900
 -64.00  408.270  801.015  899.060  801.124    1.249    4.004    4.194    4.025
 -63.00  426.636  794.521  901.821  796.385    1.230    4.159    4.337    4.192
 -62.00  448.913  785.743  904.939  791.385    1.204    4.349    4.512    4.391
 -61.00  474.138  774.807  908.367  786.052    1.171    4.564    4.712    4.612
 -60.00  501.343  761.888  912.040  780.302    1.131    4.796    4.927    4.846
 -59.00  529.587  747.238  915.875  774.048    1.082    5.036    5.151    5.085
 -58.00  557.961  731.206  919.773  767.201    1.025    5.277    5.376    5.322
 -57.00  585.588  714.263  923.626  759.679    0.959    5.511    5.594    5.550
 -56.00  611.628  697.010  927.314  751.421    0.886    5.731    5.799    5.762
 -55.00  635.287  680.182  930.719  742.402    0.807    5.929    5.984    5.953
