Raise Test 2
test
RAISE2.FLD

 DIST    B Horz   B Vert   B PROD    B MAX   E Horz   E Vert   E PROD    E MAX
 (Ft)     (mG)     (mG)     (mG)      (mG)   (kV/m)   (kV/m)   (kV/m)   (V/m)
 ----    ------   ------   ------    -----   ------   ------   ------   ------
-250.00    0.123    0.898    0.907    0.907    0.001    0.022    0.022    0.022
-249.00    0.124    0.905    0.914    0.914    0.001    0.022    0.022    0.022
-248.00    0.126    0.913    0.921    0.921    0.001    0.022    0.022    0.022
-247.00    0.127    0.920    0.929    0.929    0.001    0.023    0.023    0.023
-246.00    0.129    0.927    0.936    0.936    0.001    0.023    0.023    0.023
-245.00    0.131    0.935    0.944    0.944    0.001    0.023    0.023    0.023
-244.00    0.132    0.942    0.952    0.952    0.001    0.023    0.023    0.023
-243.00    0.134    0.950    0.960    0.960    0.001    0.023    0.023    0.023
-242.00    0.136    0.958    0.967    0.967    0.001    0.024    0.024    0.024
-241.00    0.137    0.966    0.975    0.975    0.001    0.024    0.024    0.024
-240.00    0.139    0.974    0.984    0.984    0.001    0.024    0.024    0.024
-239.00    0.141    0.982    0.992    0.992    0.001    0.024    0.024    0.024
-238.00    0.142    0.990    1.000    1.000    0.001    0.025    0.025    0.025
-237.00    0.144    0.998    1.009    1.009    0.001    0.025    0.025    0.025
-236.00    0.146    1.007    1.017    1.017    0.001    0.025    0.025    0.025
-235.00    0.148    1.015    1.026    1.026    0.001    0.025    0.025    0.025
-234.00    0.150    1.024    1.035    1.035    0.001    0.026    0.026    0.026
-233.00    0.152    1.032    1.043    1.043    0.001    0.026    0.026    0.026
-232.00    0.154    1.041    1.052    1.052    0.001    0.026    0.026    0.026
-231.00    0.156    1.050    1.061    1.061    0.001    0.027    0.027    0.027
-230.00    0.158    1.059    1.071    1.071    0.001    0.027    0.027    0.027
-229.00    0.160    1.068    1.080    1.080    0.001    0.027    0.027    0.027
-228.00    0.162    1.077    1.090    1.090    0.001    0.027    0.027    0.027
-227.00    0.164    1.087    1.099    1.099    0.001    0.028    0.028    0.028
-226.00    0.166    1.096    1.109    1.109    0.001    0.028    0.028    0.028
-225.00    0.168    1.106    1.119    1.119    0.001    0.028    0.028    0.028
-224.00    0.171    1.116    1.129    1.129    0.001    0.029    0.029    0.029
-223.00    0.173    1.126    1.139    1.139    0.001    0.029    0.029    0.029
-222.00    0.175    1.136    1.149    1.149    0.001    0.029    0.029    0.029
-221.00    0.178    1.146    1.159    1.159    0.001    0.030    0.030    0.030
-220.00    0.180    1.156    1.170    1.170    0.001    0.030    0.030    0.030
-219.00    0.183    1.166    1.181    1.181    0.001    0.030    0.030    0.030
-218.00    0.185    1.177    1.191    1.191    0.001    0.031    0.031    0.031
-217.00    0.188    1.188    1.202    1.202    0.001    0.031    0.031    0.031
-216.00    0.190    1.198    1.213    1.213    0.001    0.031    0.031    0.031
-215.00    0.193    1.209    1.225    1.225    0.001    0.032    0.032    0.032
-214.00    0.196    1.221    1.236    1.236    0.001    0.032    0.032    0.032
-213.00    0.198    1.232    1.248    1.248    0.001    0.032    0.032    0.032
-212.00    0.201    1.243    1.260    1.260    0.001    0.033    0.033    0.033
-211.00    0.204    1.255    1.271    1.271    0.001    0.033    0.033    0.033
-210.00    0.207    1.267    1.284    1.284    0.001    0.034    0.034    0.034
-209.00    0.210    1.279    1.296    1.296    0.001    0.034    0.034    0.034
-208.00    0.213    1.291    1.308    1.308    0.001    0.034    0.034    0.034
-207.00    0.216    1.303    1.321    1.321    0.001    0.035    0.035    0.035
-206.00    0.219    1.315    1.334    1.334    0.001    0.035    0.035    0.035
-205.00    0.222    1.328    1.347    1.347    0.001    0.036    0.036    0.036
-204.00    0.226    1.341    1.360    1.360    0.001    0.036    0.036    0.036
-203.00    0.229    1.354    1.373    1.373    0.001    0.037    0.037    0.037
-202.00    0.232    1.367    1.387    1.387    0.001    0.037    0.037    0.037
-201.00    0.236    1.381    1.401    1.401    0.001    0.037    0.037    0.037
-200.00    0.239    1.394    1.414    1.414    0.001    0.038    0.038    0.038
-199.00    0.243    1.408    1.429    1.429    0.001    0.038    0.038    0.038
-198.00    0.247    1.422    1.443    1.443    0.002    0.039    0.039    0.039
-197.00    0.250    1.436    1.458    1.458    0.002    0.039    0.039    0.039
-196.00    0.254    1.450    1.473    1.473    0.002    0.040    0.040    0.040
-195.00    0.258    1.465    1.488    1.488    0.002    0.040    0.040    0.040
-194.00    0.262    1.480    1.503    1.503    0.002    0.041    0.041    0.041
-193.00    0.266    1.495    1.518    1.518    0.002    0.041    0.041    0.041
-192.00    0.270    1.510    1.534    1.534    0.002    0.042    0.042    0.042
-191.00    0.275    1.526    1.550    1.550    0.002    0.043    0.043    0.043
-190.00    0.279    1.542    1.567    1.567    0.002    0.043    0.043    0.043
-189.00    0.283    1.558    1.583    1.583    0.002    0.044    0.044    0.044
-188.00    0.288    1.574    1.600    1.600    0.002    0.044    0.044    0.044
-187.00    0.293    1.590    1.617    1.617    0.002    0.045    0.045    0.045
-186.00    0.297    1.607    1.634    1.634    0.002    0.046    0.046    0.046
-185.00    0.302    1.624    1.652    1.652    0.002    0.046    0.046    0.046
-184.00    0.307    1.641    1.670    1.670    0.002    0.047    0.047    0.047
-183.00    0.312    1.659    1.688    1.688    0.002    0.047    0.047    0.047
-182.00    0.317    1.677    1.707    1.707    0.002    0.048    0.048    0.048
-181.00    0.322    1.695    1.725    1.725    0.002    0.049    0.049    0.049
-180.00    0.328    1.713    1.745    1.744    0.002    0.049    0.050    0.050
-179.00    0.333    1.732    1.764    1.764    0.002    0.050    0.050    0.050
-178.00    0.339    1.751    1.784    1.784    0.002    0.051    0.051    0.051
-177.00    0.345    1.771    1.804    1.804    0.002    0.052    0.052    0.052
-176.00    0.350    1.790    1.824    1.824    0.002    0.052    0.052    0.052
-175.00    0.356    1.810    1.845    1.845    0.002    0.053    0.053    0.053
-174.00    0.363    1.831    1.866    1.866    0.002    0.054    0.054    0.054
-173.00    0.369    1.851    1.888    1.888    0.002    0.055    0.055    0.055
-172.00    0.375    1.872    1.910    1.910    0.003    0.056    0.056    0.056
-171.00    0.382    1.894    1.932    1.932    0.003    0.056    0.056    0.056
-170.00    0.389    1.915    1.954    1.954    0.003    0.057    0.057    0.057
-169.00    0.395    1.938    1.978    1.978    0.003    0.058    0.058    0.058
-168.00    0.403    1.960    2.001    2.001    0.003    0.059    0.059    0.059
-167.00    0.410    1.983    2.025    2.025    0.003    0.060    0.060    0.060
-166.00    0.417    2.006    2.049    2.049    0.003    0.061    0.061    0.061
-165.00    0.425    2.030    2.074    2.074    0.003    0.062    0.062    0.062
-164.00    0.432    2.054    2.099    2.099    0.003    0.063    0.063    0.063
-163.00    0.440    2.079    2.125    2.125    0.003    0.064    0.064    0.064
-162.00    0.449    2.104    2.151    2.151    0.003    0.065    0.065    0.065
-161.00    0.457    2.129    2.178    2.178    0.003    0.066    0.066    0.066
-160.00    0.465    2.155    2.205    2.205    0.003    0.067    0.067    0.067
-159.00    0.474    2.181    2.232    2.232    0.003    0.068    0.068    0.068
-158.00    0.483    2.208    2.260    2.260    0.003    0.069    0.069    0.069
-157.00    0.492    2.236    2.289    2.289    0.004    0.070    0.071    0.071
-156.00    0.502    2.263    2.318    2.318    0.004    0.072    0.072    0.072
-155.00    0.511    2.292    2.348    2.348    0.004    0.073    0.073    0.073
-154.00    0.521    2.321    2.379    2.379    0.004    0.074    0.074    0.074
-153.00    0.532    2.350    2.410    2.410    0.004    0.075    0.075    0.075
-152.00    0.542    2.380    2.441    2.441    0.004    0.077    0.077    0.077
-151.00    0.553    2.411    2.473    2.473    0.004    0.078    0.078    0.078
-150.00    0.564    2.442    2.506    2.506    0.004    0.079    0.079    0.079
-149.00    0.575    2.474    2.540    2.540    0.004    0.081    0.081    0.081
-148.00    0.587    2.506    2.574    2.574    0.004    0.082    0.082    0.082
-147.00    0.599    2.539    2.609    2.609    0.005    0.084    0.084    0.084
-146.00    0.611    2.573    2.644    2.644    0.005    0.085    0.085    0.085
-145.00    0.623    2.607    2.680    2.680    0.005    0.087    0.087    0.087
-144.00    0.636    2.642    2.717    2.717    0.005    0.088    0.088    0.088
-143.00    0.650    2.678    2.755    2.755    0.005    0.090    0.090    0.090
-142.00    0.663    2.714    2.794    2.794    0.005    0.092    0.092    0.092
-141.00    0.677    2.751    2.833    2.833    0.005    0.093    0.094    0.094
-140.00    0.692    2.789    2.874    2.874    0.005    0.095    0.095    0.095
-139.00    0.707    2.828    2.915    2.915    0.006    0.097    0.097    0.097
-138.00    0.722    2.867    2.957    2.957    0.006    0.099    0.099    0.099
-137.00    0.738    2.907    3.000    3.000    0.006    0.101    0.101    0.101
-136.00    0.754    2.949    3.043    3.043    0.006    0.103    0.103    0.103
-135.00    0.770    2.991    3.088    3.088    0.006    0.105    0.105    0.105
-134.00    0.788    3.033    3.134    3.134    0.006    0.107    0.107    0.107
-133.00    0.805    3.077    3.181    3.181    0.007    0.109    0.109    0.109
-132.00    0.823    3.122    3.229    3.229    0.007    0.111    0.111    0.111
-131.00    0.842    3.168    3.278    3.278    0.007    0.113    0.114    0.114
-130.00    0.862    3.214    3.328    3.328    0.007    0.116    0.116    0.116
-129.00    0.881    3.262    3.379    3.379    0.007    0.118    0.118    0.118
-128.00    0.902    3.311    3.432    3.431    0.008    0.121    0.121    0.121
-127.00    0.923    3.361    3.485    3.485    0.008    0.123    0.123    0.123
-126.00    0.945    3.412    3.540    3.540    0.008    0.126    0.126    0.126
-125.00    0.967    3.464    3.596    3.596    0.008    0.129    0.129    0.129
-124.00    0.991    3.517    3.654    3.654    0.009    0.131    0.132    0.132
-123.00    1.015    3.571    3.713    3.713    0.009    0.134    0.135    0.135
-122.00    1.039    3.627    3.773    3.773    0.009    0.137    0.138    0.138
-121.00    1.065    3.684    3.835    3.835    0.009    0.140    0.141    0.141
-120.00    1.091    3.743    3.898    3.898    0.010    0.143    0.144    0.144
-119.00    1.119    3.802    3.963    3.963    0.010    0.147    0.147    0.147
-118.00    1.147    3.863    4.030    4.030    0.010    0.150    0.150    0.150
-117.00    1.176    3.926    4.098    4.098    0.011    0.153    0.154    0.154
-116.00    1.206    3.990    4.168    4.168    0.011    0.157    0.157    0.157
-115.00    1.237    4.056    4.240    4.240    0.011    0.161    0.161    0.161
-114.00    1.270    4.123    4.314    4.314    0.012    0.165    0.165    0.165
-113.00    1.303    4.192    4.389    4.389    0.012    0.169    0.169    0.169
-112.00    1.337    4.262    4.467    4.467    0.013    0.173    0.173    0.173
-111.00    1.373    4.334    4.547    4.547    0.013    0.177    0.177    0.177
-110.00    1.410    4.408    4.629    4.628    0.013    0.181    0.182    0.182
-109.00    1.449    4.484    4.713    4.712    0.014    0.186    0.186    0.186
-108.00    1.488    4.562    4.799    4.799    0.014    0.190    0.191    0.191
-107.00    1.530    4.642    4.888    4.887    0.015    0.195    0.196    0.196
-106.00    1.572    4.724    4.979    4.979    0.015    0.200    0.201    0.201
-105.00    1.617    4.808    5.073    5.072    0.016    0.205    0.206    0.206
-104.00    1.663    4.894    5.169    5.169    0.017    0.211    0.211    0.211
-103.00    1.711    4.983    5.268    5.268    0.017    0.216    0.217    0.217
-102.00    1.760    5.073    5.370    5.370    0.018    0.222    0.223    0.223
-101.00    1.812    5.167    5.475    5.475    0.018    0.228    0.229    0.229
-100.00    1.865    5.262    5.583    5.583    0.019    0.234    0.235    0.235
 -99.00    1.921    5.361    5.694    5.694    0.020    0.241    0.242    0.242
 -98.00    1.979    5.461    5.809    5.809    0.021    0.247    0.248    0.248
 -97.00    2.039    5.565    5.927    5.927    0.021    0.254    0.255    0.255
 -96.00    2.102    5.672    6.049    6.048    0.022    0.262    0.262    0.262
 -95.00    2.167    5.781    6.174    6.174    0.023    0.269    0.270    0.270
 -94.00    2.235    5.894    6.304    6.303    0.024    0.277    0.278    0.278
 -93.00    2.306    6.010    6.437    6.437    0.025    0.285    0.286    0.286
 -92.00    2.380    6.129    6.575    6.574    0.026    0.293    0.295    0.295
 -91.00    2.457    6.251    6.717    6.716    0.027    0.302    0.303    0.303
 -90.00    2.537    6.377    6.863    6.863    0.028    0.311    0.313    0.313
 -89.00    2.621    6.507    7.015    7.014    0.029    0.321    0.322    0.322
 -88.00    2.708    6.640    7.171    7.171    0.031    0.331    0.332    0.332
 -87.00    2.800    6.778    7.333    7.333    0.032    0.341    0.343    0.343
 -86.00    2.895    6.919    7.501    7.500    0.033    0.352    0.353    0.353
 -85.00    2.995    7.065    7.674    7.673    0.035    0.363    0.365    0.365
 -84.00    3.100    7.215    7.853    7.852    0.036    0.375    0.377    0.377
 -83.00    3.209    7.370    8.038    8.037    0.038    0.387    0.389    0.389
 -82.00    3.323    7.529    8.230    8.229    0.040    0.400    0.402    0.402
 -81.00    3.443    7.693    8.428    8.428    0.042    0.413    0.415    0.415
 -80.00    3.569    7.862    8.634    8.633    0.043    0.427    0.430    0.430
 -79.00    3.701    8.037    8.848    8.847    0.045    0.442    0.444    0.444
 -78.00    3.839    8.217    9.069    9.068    0.048    0.457    0.460    0.460
 -77.00    3.984    8.402    9.299    9.298    0.050    0.473    0.476    0.476
 -76.00    4.137    8.593    9.537    9.536    0.052    0.490    0.493    0.493
 -75.00    4.297    8.791    9.785    9.783    0.055    0.508    0.511    0.511
 -74.00    4.465    8.995   10.042   10.040    0.057    0.526    0.529    0.529
 -73.00    4.642    9.205   10.309   10.308    0.060    0.546    0.549    0.549
 -72.00    4.829    9.422   10.587   10.585    0.063    0.566    0.570    0.570
 -71.00    5.025    9.646   10.876   10.874    0.067    0.588    0.591    0.591
 -70.00    5.233    9.877   11.177   11.175    0.070    0.610    0.614    0.614
 -69.00    5.451   10.115   11.491   11.489    0.074    0.634    0.638    0.638
 -68.00    5.682   10.362   11.817   11.815    0.077    0.659    0.663    0.663
 -67.00    5.925   10.616   12.158   12.155    0.082    0.685    0.690    0.690
 -66.00    6.182   10.879   12.513   12.510    0.086    0.712    0.717    0.717
 -65.00    6.454   11.150   12.883   12.880    0.091    0.741    0.747    0.747
 -64.00    6.742   11.430   13.270   13.267    0.096    0.772    0.778    0.778
 -63.00    7.047   11.719   13.674   13.671    0.101    0.804    0.811    0.811
 -62.00    7.370   12.017   14.097   14.093    0.107    0.838    0.845    0.845
 -61.00    7.713   12.324   14.539   14.535    0.113    0.874    0.882    0.882
 -60.00    8.076   12.642   15.001   14.997    0.119    0.913    0.920    0.920
 -59.00    8.463   12.969   15.486   15.481    0.126    0.953    0.961    0.961
 -58.00    8.873   13.307   15.993   15.988    0.133    0.995    1.004    1.004
 -57.00    9.309   13.654   16.526   16.520    0.141    1.041    1.050    1.050
 -56.00    9.774   14.012   17.084   17.077    0.150    1.088    1.099    1.099
 -55.00   10.269   14.381   17.671   17.663    0.159    1.139    1.150    1.150
 -54.00   10.797   14.759   18.287   18.279    0.168    1.193    1.205    1.205
 -53.00   11.360   15.149   18.935   18.926    0.179    1.250    1.262    1.262
 -52.00   11.961   15.548   19.617   19.606    0.190    1.310    1.324    1.324
 -51.00   12.604   15.957   20.334   20.323    0.202    1.375    1.389    1.389
 -50.00   13.292   16.375   21.091   21.078    0.214    1.443    1.459    1.459
 -49.00   14.028   16.802   21.888   21.874    0.228    1.516    1.533    1.533
 -48.00   14.816   17.237   22.730   22.714    0.243    1.593    1.611    1.611
 -47.00   15.661   17.679   23.619   23.601    0.258    1.675    1.695    1.695
 -46.00   16.568   18.127   24.558   24.538    0.275    1.763    1.784    1.784
 -45.00   17.542   18.578   25.551   25.529    0.293    1.856    1.879    1.879
 -44.00   18.589   19.030   26.603   26.578    0.312    1.956    1.981    1.981
 -43.00   19.714   19.482   27.717   27.688    0.333    2.062    2.089    2.089
 -42.00   20.926   19.929   28.897   28.865    0.355    2.175    2.204    2.204
 -41.00   22.229   20.368   30.150   30.114    0.378    2.296    2.327    2.327
 -40.00   23.634   20.794   31.480   31.438    0.403    2.424    2.458    2.458
 -39.00   25.148   21.201   32.892   32.845    0.430    2.562    2.597    2.597
 -38.00   26.779   21.583   34.394   34.341    0.458    2.708    2.746    2.746
 -37.00   28.539   21.930   35.991   35.930    0.487    2.864    2.905    2.905
 -36.00   30.436   22.233   37.692   37.622    0.518    3.030    3.074    3.074
 -35.00   32.481   22.481   39.502   39.422    0.551    3.207    3.254    3.254
 -34.00   34.686   22.659   41.431   41.339    0.584    3.395    3.444    3.444
 -33.00   37.060   22.751   43.487   43.381    0.618    3.594    3.647    3.647
 -32.00   39.615   22.740   45.678   45.556    0.653    3.806    3.861    3.861
 -31.00   42.361   22.602   48.014   47.872    0.689    4.029    4.088    4.088
 -30.00   45.307   22.315   50.504   50.340    0.723    4.266    4.326    4.326
 -29.00   48.459   21.851   53.157   52.966    0.757    4.514    4.577    4.577
 -28.00   51.822   21.181   55.983   55.761    0.787    4.774    4.839    4.838
 -27.00   55.397   20.277   58.991   58.731    0.815    5.045    5.111    5.110
 -26.00   59.178   19.113   62.188   61.884    0.837    5.327    5.392    5.391
 -25.00   63.153   17.679   65.581   65.224    0.853    5.616    5.680    5.680
 -24.00   67.302   15.991   69.175   68.756    0.860    5.911    5.973    5.972
 -23.00   71.590   14.138   72.973   72.480    0.855    6.208    6.267    6.266
 -22.00   75.972   12.373   76.973   76.392    0.838    6.504    6.558    6.557
 -21.00   80.383   11.273   81.170   80.484    0.805    6.793    6.841    6.839
 -20.00   84.743   11.753   85.554   84.745    0.755    7.069    7.109    7.107
 -19.00   88.948   14.412   90.108   89.154    0.687    7.325    7.357    7.353
 -18.00   92.879   19.041   94.811   93.684    0.605    7.551    7.575    7.570
 -17.00   96.394   25.185   99.630   98.302    0.518    7.739    7.756    7.749
 -16.00   99.340   32.520  104.528  102.965    0.450    7.877    7.890    7.881
 -15.00  101.558   40.831  109.459  107.623    0.444    7.957    7.969    7.957
 -14.00  102.893   49.941  114.372  112.222    0.534    7.968    7.986    7.969
 -13.00  103.207   59.663  119.211  116.703    0.704    7.901    7.932    7.910
 -12.00  102.396   69.787  123.916  121.003    0.922    7.750    7.805    7.775
 -11.00  100.405   80.078  128.428  125.065    1.164    7.511    7.601    7.561
 -10.00   97.242   90.282  132.691  128.833    1.413    7.185    7.322    7.270
  -9.00   92.984  100.141  136.654  132.264    1.656    6.774    6.974    6.905
  -8.00   87.785  109.410  140.273  135.322    1.883    6.289    6.565    6.475
  -7.00   81.871  117.872  143.515  137.985    2.085    5.740    6.107    5.990
  -6.00   75.533  125.354  146.352  140.246    2.256    5.145    5.618    5.465
  -5.00   69.115  131.738  148.767  142.109    2.393    4.524    5.118    4.917
