Raise Test 1
test
RAISE1.FLD

 DIST    B Horz   B Vert   B PROD    B MAX   E Horz   E Vert   E PROD    E MAX
 (Ft)     (mG)     (mG)     (mG)      (mG)   (kV/m)   (kV/m)   (kV/m)   (V/m)
 ----    ------   ------   ------    -----   ------   ------   ------   ------
-250.00    0.051    0.909    0.910    0.910    0.000    0.013    0.013    0.013
-249.00    0.052    0.916    0.918    0.918    0.000    0.013    0.013    0.013
-248.00    0.052    0.923    0.925    0.925    0.000    0.013    0.013    0.013
-247.00    0.053    0.931    0.932    0.932    0.000    0.013    0.013    0.013
-246.00    0.054    0.939    0.940    0.940    0.000    0.013    0.013    0.013
-245.00    0.054    0.946    0.948    0.948    0.000    0.013    0.013    0.013
-244.00    0.055    0.954    0.956    0.956    0.000    0.014    0.014    0.014
-243.00    0.056    0.962    0.963    0.963    0.000    0.014    0.014    0.014
-242.00    0.056    0.970    0.971    0.971    0.000    0.014    0.014    0.014
-241.00    0.057    0.978    0.980    0.980    0.000    0.014    0.014    0.014
-240.00    0.058    0.986    0.988    0.988    0.000    0.014    0.014    0.014
-239.00    0.058    0.994    0.996    0.996    0.000    0.014    0.014    0.014
-238.00    0.059    1.003    1.004    1.004    0.000    0.014    0.014    0.014
-237.00    0.060    1.011    1.013    1.013    0.000    0.014    0.014    0.014
-236.00    0.061    1.020    1.022    1.022    0.000    0.015    0.015    0.015
-235.00    0.061    1.028    1.030    1.030    0.000    0.015    0.015    0.015
-234.00    0.062    1.037    1.039    1.039    0.000    0.015    0.015    0.015
-233.00    0.063    1.046    1.048    1.048    0.000    0.015    0.015    0.015
-232.00    0.064    1.055    1.057    1.057    0.000    0.015    0.015    0.015
-231.00    0.065    1.064    1.066    1.066    0.000    0.015    0.015    0.015
-230.00    0.066    1.074    1.076    1.076    0.000    0.016    0.016    0.016
-229.00    0.066    1.083    1.085    1.085    0.001    0.016    0.016    0.016
-228.00    0.067    1.092    1.095    1.095    0.001    0.016    0.016    0.016
-227.00    0.068    1.102    1.104    1.104    0.001    0.016    0.016    0.016
-226.00    0.069    1.112    1.114    1.114    0.001    0.016    0.016    0.016
-225.00    0.070    1.122    1.124    1.124    0.001    0.016    0.016    0.016
-224.00    0.071    1.132    1.134    1.134    0.001    0.017    0.017    0.017
-223.00    0.072    1.142    1.144    1.144    0.001    0.017    0.017    0.017
-222.00    0.073    1.152    1.155    1.155    0.001    0.017    0.017    0.017
-221.00    0.074    1.163    1.165    1.165    0.001    0.017    0.017    0.017
-220.00    0.075    1.173    1.176    1.176    0.001    0.017    0.017    0.017
-219.00    0.076    1.184    1.187    1.187    0.001    0.018    0.018    0.018
-218.00    0.077    1.195    1.197    1.197    0.001    0.018    0.018    0.018
-217.00    0.078    1.206    1.209    1.209    0.001    0.018    0.018    0.018
-216.00    0.079    1.217    1.220    1.220    0.001    0.018    0.018    0.018
-215.00    0.080    1.229    1.231    1.231    0.001    0.018    0.018    0.018
-214.00    0.081    1.240    1.243    1.243    0.001    0.019    0.019    0.019
-213.00    0.083    1.252    1.254    1.254    0.001    0.019    0.019    0.019
-212.00    0.084    1.263    1.266    1.266    0.001    0.019    0.019    0.019
-211.00    0.085    1.275    1.278    1.278    0.001    0.019    0.019    0.019
-210.00    0.086    1.288    1.291    1.291    0.001    0.019    0.019    0.019
-209.00    0.087    1.300    1.303    1.303    0.001    0.020    0.020    0.020
-208.00    0.089    1.313    1.316    1.316    0.001    0.020    0.020    0.020
-207.00    0.090    1.325    1.328    1.328    0.001    0.020    0.020    0.020
-206.00    0.091    1.338    1.341    1.341    0.001    0.020    0.020    0.020
-205.00    0.093    1.351    1.354    1.354    0.001    0.021    0.021    0.021
-204.00    0.094    1.364    1.368    1.368    0.001    0.021    0.021    0.021
-203.00    0.095    1.378    1.381    1.381    0.001    0.021    0.021    0.021
-202.00    0.097    1.392    1.395    1.395    0.001    0.021    0.021    0.021
-201.00    0.098    1.405    1.409    1.409    0.001    0.022    0.022    0.022
-200.00    0.100    1.420    1.423    1.423    0.001    0.022    0.022    0.022
-199.00    0.101    1.434    1.437    1.437    0.001    0.022    0.022    0.022
-198.00    0.103    1.448    1.452    1.452    0.001    0.022    0.022    0.022
-197.00    0.104    1.463    1.467    1.467    0.001    0.023    0.023    0.023
-196.00    0.106    1.478    1.482    1.482    0.001    0.023    0.023    0.023
-195.00    0.108    1.493    1.497    1.497    0.001    0.023    0.023    0.023
-194.00    0.109    1.509    1.513    1.513    0.001    0.024    0.024    0.024
-193.00    0.111    1.524    1.528    1.528    0.001    0.024    0.024    0.024
-192.00    0.113    1.540    1.544    1.544    0.001    0.024    0.024    0.024
-191.00    0.115    1.556    1.561    1.561    0.001    0.024    0.024    0.024
-190.00    0.116    1.573    1.577    1.577    0.001    0.025    0.025    0.025
-189.00    0.118    1.589    1.594    1.594    0.001    0.025    0.025    0.025
-188.00    0.120    1.606    1.611    1.611    0.001    0.025    0.025    0.025
-187.00    0.122    1.624    1.628    1.628    0.001    0.026    0.026    0.026
-186.00    0.124    1.641    1.646    1.646    0.001    0.026    0.026    0.026
-185.00    0.126    1.659    1.664    1.664    0.001    0.026    0.026    0.026
-184.00    0.128    1.677    1.682    1.682    0.001    0.027    0.027    0.027
-183.00    0.130    1.695    1.700    1.700    0.001    0.027    0.027    0.027
-182.00    0.133    1.714    1.719    1.719    0.001    0.028    0.028    0.028
-181.00    0.135    1.733    1.738    1.738    0.001    0.028    0.028    0.028
-180.00    0.137    1.752    1.758    1.758    0.001    0.028    0.028    0.028
-179.00    0.139    1.772    1.777    1.777    0.001    0.029    0.029    0.029
-178.00    0.142    1.792    1.797    1.797    0.001    0.029    0.029    0.029
-177.00    0.144    1.812    1.818    1.818    0.001    0.030    0.030    0.030
-176.00    0.147    1.833    1.839    1.839    0.001    0.030    0.030    0.030
-175.00    0.149    1.854    1.860    1.860    0.001    0.030    0.030    0.030
-174.00    0.152    1.875    1.881    1.881    0.001    0.031    0.031    0.031
-173.00    0.154    1.897    1.903    1.903    0.001    0.031    0.031    0.031
-172.00    0.157    1.919    1.925    1.925    0.001    0.032    0.032    0.032
-171.00    0.160    1.941    1.948    1.948    0.001    0.032    0.032    0.032
-170.00    0.163    1.964    1.971    1.971    0.001    0.033    0.033    0.033
-169.00    0.166    1.987    1.994    1.994    0.002    0.033    0.033    0.033
-168.00    0.169    2.011    2.018    2.018    0.002    0.034    0.034    0.034
-167.00    0.172    2.035    2.042    2.042    0.002    0.034    0.034    0.034
-166.00    0.175    2.060    2.067    2.067    0.002    0.035    0.035    0.035
-165.00    0.178    2.085    2.092    2.092    0.002    0.035    0.035    0.035
-164.00    0.181    2.110    2.118    2.118    0.002    0.036    0.036    0.036
-163.00    0.185    2.136    2.144    2.144    0.002    0.036    0.036    0.036
-162.00    0.188    2.163    2.171    2.171    0.002    0.037    0.037    0.037
-161.00    0.192    2.190    2.198    2.198    0.002    0.038    0.038    0.038
-160.00    0.195    2.217    2.226    2.226    0.002    0.038    0.038    0.038
-159.00    0.199    2.245    2.254    2.254    0.002    0.039    0.039    0.039
-158.00    0.203    2.273    2.282    2.282    0.002    0.039    0.040    0.040
-157.00    0.207    2.302    2.312    2.312    0.002    0.040    0.040    0.040
-156.00    0.211    2.332    2.342    2.342    0.002    0.041    0.041    0.041
-155.00    0.215    2.362    2.372    2.372    0.002    0.041    0.042    0.042
-154.00    0.219    2.393    2.403    2.403    0.002    0.042    0.042    0.042
-153.00    0.223    2.424    2.435    2.435    0.002    0.043    0.043    0.043
-152.00    0.228    2.456    2.467    2.467    0.002    0.044    0.044    0.044
-151.00    0.232    2.489    2.500    2.500    0.002    0.044    0.044    0.044
-150.00    0.237    2.522    2.533    2.533    0.002    0.045    0.045    0.045
-149.00    0.242    2.556    2.567    2.567    0.002    0.046    0.046    0.046
-148.00    0.247    2.591    2.602    2.602    0.003    0.047    0.047    0.047
-147.00    0.252    2.626    2.638    2.638    0.003    0.048    0.048    0.048
-146.00    0.257    2.662    2.674    2.674    0.003    0.048    0.049    0.049
-145.00    0.263    2.699    2.711    2.711    0.003    0.049    0.049    0.049
-144.00    0.268    2.736    2.749    2.749    0.003    0.050    0.050    0.050
-143.00    0.274    2.775    2.788    2.788    0.003    0.051    0.051    0.051
-142.00    0.280    2.814    2.828    2.828    0.003    0.052    0.052    0.052
-141.00    0.286    2.854    2.868    2.868    0.003    0.053    0.053    0.053
-140.00    0.292    2.895    2.909    2.909    0.003    0.054    0.054    0.054
-139.00    0.298    2.936    2.951    2.951    0.003    0.055    0.055    0.055
-138.00    0.305    2.979    2.994    2.994    0.003    0.056    0.056    0.056
-137.00    0.312    3.022    3.038    3.038    0.003    0.057    0.057    0.057
-136.00    0.319    3.067    3.084    3.083    0.003    0.058    0.058    0.058
-135.00    0.326    3.113    3.130    3.130    0.004    0.060    0.060    0.060
-134.00    0.333    3.159    3.177    3.177    0.004    0.061    0.061    0.061
-133.00    0.341    3.207    3.225    3.225    0.004    0.062    0.062    0.062
-132.00    0.349    3.255    3.274    3.274    0.004    0.063    0.063    0.063
-131.00    0.357    3.305    3.324    3.324    0.004    0.064    0.065    0.065
-130.00    0.365    3.356    3.376    3.376    0.004    0.066    0.066    0.066
-129.00    0.374    3.408    3.429    3.429    0.004    0.067    0.067    0.067
-128.00    0.383    3.462    3.483    3.483    0.004    0.069    0.069    0.069
-127.00    0.392    3.516    3.538    3.538    0.004    0.070    0.070    0.070
-126.00    0.401    3.572    3.595    3.594    0.005    0.071    0.072    0.072
-125.00    0.411    3.629    3.652    3.652    0.005    0.073    0.073    0.073
-124.00    0.421    3.688    3.712    3.712    0.005    0.075    0.075    0.075
-123.00    0.431    3.748    3.773    3.773    0.005    0.076    0.076    0.076
-122.00    0.442    3.810    3.835    3.835    0.005    0.078    0.078    0.078
-121.00    0.453    3.873    3.899    3.899    0.005    0.080    0.080    0.080
-120.00    0.465    3.937    3.965    3.965    0.006    0.081    0.082    0.082
-119.00    0.477    4.004    4.032    4.032    0.006    0.083    0.084    0.084
-118.00    0.489    4.072    4.101    4.101    0.006    0.085    0.085    0.085
-117.00    0.502    4.141    4.172    4.172    0.006    0.087    0.087    0.087
-116.00    0.515    4.213    4.244    4.244    0.006    0.089    0.090    0.090
-115.00    0.529    4.286    4.319    4.319    0.007    0.091    0.092    0.092
-114.00    0.543    4.362    4.395    4.395    0.007    0.094    0.094    0.094
-113.00    0.557    4.439    4.474    4.474    0.007    0.096    0.096    0.096
-112.00    0.573    4.518    4.554    4.554    0.007    0.098    0.099    0.098
-111.00    0.588    4.600    4.637    4.637    0.008    0.101    0.101    0.101
-110.00    0.605    4.684    4.722    4.722    0.008    0.103    0.103    0.103
-109.00    0.621    4.770    4.810    4.810    0.008    0.106    0.106    0.106
-108.00    0.639    4.858    4.900    4.900    0.008    0.108    0.109    0.109
-107.00    0.657    4.949    4.992    4.992    0.009    0.111    0.112    0.112
-106.00    0.676    5.043    5.088    5.088    0.009    0.114    0.115    0.115
-105.00    0.696    5.139    5.186    5.186    0.009    0.117    0.118    0.118
-104.00    0.716    5.238    5.286    5.286    0.010    0.120    0.121    0.121
-103.00    0.738    5.339    5.390    5.390    0.010    0.124    0.124    0.124
-102.00    0.760    5.444    5.497    5.497    0.010    0.127    0.127    0.127
-101.00    0.783    5.552    5.607    5.607    0.011    0.130    0.131    0.131
-100.00    0.807    5.663    5.721    5.721    0.011    0.134    0.135    0.135
 -99.00    0.831    5.778    5.838    5.837    0.012    0.138    0.138    0.138
 -98.00    0.857    5.896    5.958    5.958    0.012    0.142    0.142    0.142
 -97.00    0.884    6.018    6.082    6.082    0.013    0.146    0.146    0.146
 -96.00    0.913    6.143    6.211    6.211    0.013    0.150    0.151    0.151
 -95.00    0.942    6.273    6.343    6.343    0.014    0.155    0.155    0.155
 -94.00    0.973    6.406    6.480    6.480    0.014    0.159    0.160    0.160
 -93.00    1.005    6.544    6.621    6.621    0.015    0.164    0.165    0.165
 -92.00    1.038    6.687    6.767    6.767    0.016    0.169    0.170    0.170
 -91.00    1.073    6.834    6.918    6.917    0.016    0.174    0.175    0.175
 -90.00    1.110    6.986    7.073    7.073    0.017    0.180    0.180    0.180
 -89.00    1.148    7.143    7.235    7.234    0.018    0.185    0.186    0.186
 -88.00    1.188    7.305    7.401    7.401    0.019    0.191    0.192    0.192
 -87.00    1.230    7.473    7.574    7.574    0.019    0.198    0.199    0.199
 -86.00    1.274    7.647    7.753    7.752    0.020    0.204    0.205    0.205
 -85.00    1.320    7.827    7.938    7.938    0.021    0.211    0.212    0.212
 -84.00    1.368    8.014    8.130    8.129    0.022    0.218    0.219    0.219
 -83.00    1.419    8.207    8.328    8.328    0.023    0.226    0.227    0.227
 -82.00    1.472    8.407    8.535    8.535    0.024    0.233    0.235    0.235
 -81.00    1.528    8.614    8.749    8.749    0.026    0.242    0.243    0.243
 -80.00    1.587    8.830    8.971    8.971    0.027    0.250    0.252    0.252
 -79.00    1.649    9.053    9.202    9.202    0.028    0.259    0.261    0.261
 -78.00    1.714    9.285    9.442    9.442    0.030    0.269    0.270    0.270
 -77.00    1.783    9.526    9.692    9.691    0.031    0.279    0.281    0.281
 -76.00    1.855    9.777    9.951    9.951    0.033    0.289    0.291    0.291
 -75.00    1.932   10.037   10.221   10.221    0.035    0.300    0.302    0.302
 -74.00    2.012   10.308   10.503   10.503    0.037    0.312    0.314    0.314
 -73.00    2.097   10.590   10.796   10.796    0.039    0.324    0.327    0.327
 -72.00    2.187   10.884   11.102   11.101    0.041    0.337    0.340    0.340
 -71.00    2.283   11.190   11.421   11.420    0.043    0.351    0.354    0.354
 -70.00    2.384   11.509   11.754   11.753    0.045    0.366    0.368    0.368
 -69.00    2.491   11.842   12.101   12.101    0.048    0.381    0.384    0.384
 -68.00    2.604   12.190   12.465   12.464    0.051    0.397    0.400    0.400
 -67.00    2.725   12.553   12.845   12.844    0.054    0.414    0.418    0.418
 -66.00    2.853   12.932   13.243   13.242    0.057    0.433    0.436    0.436
 -65.00    2.990   13.328   13.660   13.659    0.061    0.452    0.456    0.456
 -64.00    3.135   13.743   14.096   14.096    0.065    0.473    0.477    0.477
 -63.00    3.290   14.178   14.555   14.554    0.069    0.494    0.499    0.499
 -62.00    3.455   14.633   15.036   15.035    0.073    0.518    0.523    0.523
 -61.00    3.632   15.110   15.541   15.540    0.078    0.542    0.548    0.548
 -60.00    3.821   15.611   16.072   16.071    0.083    0.569    0.575    0.575
 -59.00    4.023   16.137   16.631   16.630    0.089    0.597    0.603    0.603
 -58.00    4.240   16.690   17.221   17.219    0.095    0.627    0.634    0.634
 -57.00    4.473   17.272   17.842   17.840    0.102    0.659    0.667    0.667
 -56.00    4.724   17.884   18.497   18.496    0.109    0.694    0.702    0.702
 -55.00    4.993   18.529   19.190   19.188    0.117    0.730    0.740    0.740
 -54.00    5.284   19.208   19.922   19.920    0.126    0.770    0.780    0.780
 -53.00    5.597   19.926   20.697   20.695    0.135    0.813    0.824    0.824
 -52.00    5.936   20.684   21.519   21.517    0.146    0.859    0.871    0.871
 -51.00    6.304   21.485   22.391   22.388    0.158    0.908    0.922    0.921
 -50.00    6.702   22.333   23.317   23.314    0.170    0.961    0.976    0.976
 -49.00    7.134   23.231   24.302   24.299    0.184    1.019    1.035    1.035
 -48.00    7.605   24.184   25.351   25.348    0.200    1.081    1.099    1.099
 -47.00    8.119   25.195   26.471   26.467    0.217    1.149    1.169    1.169
 -46.00    8.680   26.269   27.666   27.661    0.236    1.222    1.245    1.245
 -45.00    9.294   27.412   28.945   28.940    0.257    1.302    1.327    1.327
 -44.00    9.967   28.629   30.315   30.309    0.280    1.389    1.417    1.417
 -43.00   10.708   29.927   31.785   31.778    0.306    1.483    1.515    1.515
 -42.00   11.524   31.312   33.366   33.358    0.336    1.587    1.622    1.622
 -41.00   12.426   32.792   35.068   35.058    0.368    1.700    1.740    1.740
 -40.00   13.425   34.375   36.904   36.893    0.405    1.825    1.869    1.869
 -39.00   14.534   36.071   38.889   38.877    0.446    1.961    2.012    2.012
 -38.00   15.769   37.889   41.040   41.026    0.493    2.112    2.169    2.169
 -37.00   17.149   39.841   43.375   43.358    0.545    2.278    2.343    2.343
 -36.00   18.694   41.938   45.916   45.896    0.605    2.462    2.535    2.535
 -35.00   20.432   44.193   48.688   48.664    0.672    2.666    2.750    2.750
 -34.00   22.391   46.621   51.719   51.691    0.749    2.893    2.988    2.988
 -33.00   24.609   49.236   55.043   55.010    0.837    3.145    3.254    3.254
 -32.00   27.129   52.053   58.698   58.659    0.937    3.427    3.553    3.553
 -31.00   30.003   55.089   62.730   62.683    1.051    3.742    3.887    3.887
 -30.00   33.296   58.361   67.191   67.134    1.183    4.096    4.263    4.263
 -29.00   37.084   61.881   72.142   72.073    1.333    4.494    4.687    4.687
 -28.00   41.461   65.663   77.657   77.572    1.506    4.942    5.166    5.166
 -27.00   46.542   69.714   83.822   83.718    1.704    5.449    5.709    5.709
 -26.00   52.469   74.032   90.739   90.610    1.930    6.023    6.325    6.325
 -25.00   59.415   78.600   98.530   98.368    2.190    6.676    7.026    7.025
 -24.00   67.594   83.381  107.338  107.134    2.485    7.418    7.823    7.823
 -23.00   77.269   88.298  117.333  117.076    2.818    8.263    8.731    8.731
 -22.00   88.758   93.222  128.718  128.388    3.189    9.229    9.764    9.764
 -21.00  102.444   97.937  141.727  141.301    3.596   10.331   10.939   10.939
 -20.00  118.774  102.103  156.628  156.073    4.030   11.589   12.270   12.270
 -19.00  138.249  105.195  173.721  172.992    4.473   13.022   13.769   13.769
 -18.00  161.377  106.439  193.317  192.349    4.892   14.645   15.440   15.440
 -17.00  188.573  104.739  215.708  214.411    5.234   16.465   17.276   17.276
 -16.00  219.967   98.699  241.096  239.344    5.419   18.469   19.247   19.245
 -15.00  255.068   86.952  269.482  267.100    5.340   20.609   21.289   21.283
 -14.00  292.277   69.829  300.503  297.248    4.877   22.776   23.292   23.279
 -13.00  328.377   56.758  333.246  328.790    3.956   24.777   25.091   25.062
 -12.00  358.358   75.055  366.134  360.047    2.771   26.331   26.476   26.415
 -11.00  376.177  127.033  397.047  388.782    2.598   27.108   27.232   27.108
 -10.00  376.759  194.067  423.803  412.678    4.455   26.840   27.207   26.965
  -9.00  358.542  263.360  444.871  430.051    6.973   25.453   26.391   25.936
  -8.00  324.964  325.466  459.924  440.376    9.320   23.146   24.952   24.128
  -7.00  284.081  374.226  469.838  444.261   11.131   20.370   23.213   21.775
  -6.00  247.174  407.020  476.193  442.931   12.261   17.751   21.574   19.183
  -5.00  226.533  423.890  480.625  437.599   12.687   15.987   20.409   16.747
